intensity
67.5
-21.5
2238.5
1615.5
55.5
32.5
42.5
4.5
-36.5
-38.5
73.5
37.5
2101.5
1621.5
1581.5
1744.5
1396.5
1329.5
1317.5
1708.5
864.5
2240.5
1594.5
1898.5
1089.5
1269.5
1477.5
1343.5
891.5
1453.5
1495.5
890.5
931.5
2092.5
963.5
1387.5
1018.5
1640.5
997.5
820.5
974.5
845.5
918.5
1839.5
946.5
1057.5
1520.5
1212.5
1559.5
816.5
1841.5
1314.5
1076.5
1291.5
887.5
2041.5
850.5
1666.5
1412.5
786.5
1288.5
1371.5
911.5
998.5
779.5
1683.5
771.5
958.5
1476.5
864.5
1547.5
1457.5
1958.5
1205.5
1578.5
1095.5
1282.5
1673.5
1909.5
2317.5
1338.5
2070.5
1289.5
2349.5
1241.5
1328.5
1174.5
1922.5
1720.5
1694.5
1942.5
1666.5
758.5
1295.5
1293.5
1323.5
2097.5
1255.5
1987.5
1350.5
1428.5
856.5
1802.5
903.5
2092.5
810.5
1773.5
1926.5
1802.5
1422.5
2162.5
1941.5
2348.5
888.5
2335.5
2290.5
1444.5
1731.5
2318.5
1120.5
1254.5
1479.5
1660.5
1385.5
1505.5
919.5
1298.5
810.5
2243.5
746.5
1202.5
720.5
2152.5
1073.5
1141.5
1113.5
2039.5
1154.5
1957.5
2188.5
1141.5
840.5
1309.5
794.5
1248.5
827.5
1564.5
1128.5
1149.5
889.5
997.5
687.5
2077.5
1621.5
1133.5
2291.5
1186.5
1487.5
1051.5
1846.5
723.5
1221.5
1239.5
1016.5
2119.5
759.5
774.5
958.5
1572.5
1422.5
1833.5
957.5
918.5
2210.5
1734.5
916.5
1300.5
872.5
1378.5
1688.5
1262.5
1232.5
1153.5
1067.5
1204.5
844.5
884.5
1130.5
1036.5
686.5
797.5
807.5
1101.5
1426.5
1506.5
796.5
830.5
2246.5
1433.5
1640.5
1083.5
1148.5
1626.5
1786.5
860.5
1159.5
1041.5
1463.5
1116.5
1273.5
837.5
975.5
1625.5
1057.5
1051.5
1455.5
1238.5
891.5
883.5
1278.5
1517.5
985.5
1985.5
1007.5
1484.5
1536.5
1171.5
1270.5
1384.5
1311.5
965.5
2338.5
1004.5
1954.5
1483.5
1923.5
1142.5
1510.5
1735.5
991.5
879.5
2171.5
1542.5
2337.5
2149.5
1915.5
1373.5
1236.5
1539.5
1038.5
773.5
1769.5
1337.5
2022.5
1123.5
1443.5
1720.5
1554.5
693.5
2010.5
2154.5
976.5
1122.5
1182.5
631.5
2277.5
940.5
1583.5
1351.5
2242.5
1278.5
1676.5
970.5
777.5
1583.5
1083.5
1172.5
1527.5
1464.5
1563.5
1995.5
929.5
2216.5
1820.5
775.5
916.5
1153.5
1370.5
1004.5
930.5
1471.5
1352.5
1406.5
1170.5
734.5
1791.5
1903.5
2322.5
941.5
1585.5
909.5
890.5
1338.5
2274.5
1088.5
1336.5
2153.5
1213.5
620.5
808.5
1280.5
1530.5
1644.5
1035.5
1003.5
1892.5
1955.5
939.5
1986.5
710.5
910.5
1030.5
847.5
1670.5
747.5
1478.5
1516.5
952.5
1134.5
1411.5
1186.5
1239.5
1500.5
1697.5
1256.5
1324.5
1076.5
1729.5
1709.5
1175.5
1345.5
1178.5
1044.5
964.5
997.5
1203.5
1676.5
1300.5
1787.5
954.5
1169.5
1509.5
1317.5
1377.5
1733.5
864.5
1087.5
1949.5
1977.5
1972.5
1238.5
1334.5
1489.5
2258.5
2168.5
1960.5
1421.5
1547.5
968.5
1830.5
1428.5
2017.5
1521.5
1430.5
2318.5
2244.5
2366.5
1898.5
2367.5
1980.5
2393.5
2252.5
2334.5
2228.5
2083.5
1905.5
1866.5
1768.5
1532.5
1422.5
1622.5
1866.5
1969.5
1219.5
1316.5
1139.5
1371.5
1688.5
1813.5
1329.5
2175.5
1049.5
797.5
1868.5
1132.5
2127.5
1532.5
1049.5
1972.5
1800.5
1346.5
1241.5
1330.5
893.5
2232.5
2220.5
1193.5
788.5
1622.5
1232.5
944.5
1486.5
813.5
1311.5
1317.5
941.5
1455.5
1040.5
1147.5
1416.5
1164.5
1965.5
1371.5
1234.5
1245.5
1369.5
556.5
1119.5
1180.5
906.5
745.5
1868.5
1352.5
2121.5
1209.5
1101.5
909.5
2277.5
880.5
1607.5
978.5
1798.5
2212.5
2270.5
1621.5
1028.5
2348.5
1186.5
1056.5
734.5
846.5
2297.5
2280.5
2334.5
973.5
2312.5
1323.5
1475.5
1060.5
1196.5
906.5
2156.5
1167.5
1136.5
1587.5
1809.5
1456.5
1605.5
1139.5
2192.5
1806.5
1685.5
1373.5
2175.5
1080.5
1157.5
978.5
774.5
2053.5
2313.5
1804.5
973.5
1020.5
1142.5
1288.5
2316.5
948.5
1095.5
978.5
1350.5
1148.5
2133.5
784.5
1277.5
1535.5
1699.5
1404.5
1642.5
877.5
1656.5
2059.5
1452.5
1290.5
1720.5
2215.5
1124.5
2048.5
1477.5
1218.5
1862.5
2363.5
1060.5
1027.5
1363.5
1462.5
1332.5
1044.5
1392.5
1623.5
964.5
915.5
1896.5
2006.5
1186.5
904.5
1084.5
874.5
726.5
2246.5
877.5
1853.5
1542.5
2367.5
1069.5
1261.5
1387.5
2235.5
899.5
825.5
847.5
991.5
790.5
1022.5
863.5
1471.5
968.5
1210.5
912.5
904.5
1123.5
1241.5
827.5
1569.5
1974.5
1114.5
1828.5
941.5
1261.5
1462.5
2056.5
783.5
1004.5
1984.5
955.5
1879.5
1890.5
2258.5
1019.5
744.5
2015.5
2052.5
708.5
1178.5
1464.5
955.5
899.5
618.5
2310.5
1873.5
1725.5
1241.5
763.5
1216.5
1138.5
2149.5
1043.5
1132.5
1785.5
985.5
991.5
731.5
907.5
1231.5
1197.5
723.5
952.5
1291.5
2247.5
1055.5
1842.5
1278.5
1690.5
1543.5
1508.5
1895.5
1188.5
1191.5
1443.5
1084.5
1178.5
1417.5
1080.5
1781.5
1001.5
1352.5
1011.5
2305.5
1908.5
1938.5
1224.5
905.5
968.5
2003.5
1407.5
854.5
786.5
783.5
902.5
1722.5
1926.5
911.5
791.5
1181.5
1496.5
1222.5
1613.5
801.5
1585.5
948.5
1833.5
1268.5
1080.5
2009.5
1410.5
2257.5
963.5
932.5
1317.5
757.5
2074.5
1089.5
1546.5
1509.5
1001.5
1351.5
1107.5
967.5
927.5
792.5
1963.5
957.5
981.5
1129.5
1754.5
1170.5
2111.5
1255.5
2266.5
1393.5
1237.5
1719.5
1546.5
1029.5
1038.5
2169.5
1244.5
1154.5
1239.5
1366.5
1163.5
1670.5
1360.5
1153.5
854.5
1163.5
937.5
1028.5
1793.5
2258.5
1620.5
2255.5
828.5
1110.5
1925.5
1042.5
1840.5
1039.5
1021.5
1241.5
763.5
2090.5
1478.5
1525.5
1083.5
1019.5
1059.5
902.5
1194.5
1525.5
1201.5
1039.5
1060.5
1616.5
1807.5
1222.5
1875.5
1357.5
1340.5
1329.5
1580.5
1501.5
1459.5
1913.5
1065.5
1131.5
1241.5
1006.5
1486.5
899.5
1527.5
1670.5
1542.5
2241.5
1313.5
952.5
1007.5
2115.5
746.5
976.5
1336.5
804.5
1313.5
1551.5
1439.5
1648.5
2347.5
894.5
1847.5
1058.5
934.5
1453.5
913.5
1379.5
1727.5
1534.5
690.5
1873.5
1562.5
2024.5
1069.5
2290.5
1736.5
1584.5
1793.5
1453.5
1732.5
979.5
1411.5
668.5
604.5
1416.5
1203.5
702.5
1277.5
1308.5
1297.5
1009.5
2129.5
985.5
2337.5
1075.5
2268.5
1514.5
1535.5
929.5
619.5
1496.5
956.5
1327.5
1117.5
1904.5
958.5
1083.5
913.5
726.5
1069.5
1446.5
2263.5
1170.5
2184.5
950.5
1181.5
2201.5
1880.5
1410.5
2049.5
1751.5
1024.5
1013.5
1892.5
1711.5
1415.5
1123.5
1055.5
1319.5
1325.5
734.5
1535.5
2135.5
1896.5
1309.5
2191.5
1227.5
1792.5
2190.5
1740.5
976.5
1014.5
1706.5
2314.5
1857.5
1097.5
885.5
1345.5
1186.5
862.5
1730.5
1611.5
1346.5
1130.5
623.5
1273.5
1554.5
1852.5
2269.5
1687.5
1615.5
1018.5
962.5
1831.5
1737.5
956.5
1572.5
611.5
1838.5
1027.5
1058.5
1857.5
1488.5
1228.5
1607.5
1282.5
775.5
1058.5
1636.5
1972.5
923.5
1272.5
773.5
1864.5
1468.5
2329.5
1053.5
1818.5
1888.5
1019.5
1243.5
1769.5
1167.5
918.5
1474.5
998.5
1918.5
2105.5
1130.5
1226.5
1181.5
1491.5
1001.5
1348.5
872.5
1521.5
1390.5
1170.5
662.5
1190.5
856.5
1537.5
1251.5
1368.5
1146.5
785.5
1941.5
1854.5
1523.5
1132.5
1286.5
1192.5
1619.5
1334.5
802.5
1627.5
1675.5
2229.5
2167.5
1481.5
1962.5
1150.5
1046.5
2006.5
1243.5
1688.5
1000.5
2221.5
913.5
1292.5
1176.5
2137.5
1495.5
798.5
962.5
1488.5
1275.5
1422.5
1405.5
1101.5
836.5
900.5
1130.5
1016.5
1581.5
812.5
1660.5
1223.5
1453.5
2125.5
1410.5
1712.5
1760.5
1084.5
1684.5
1281.5
1070.5
1065.5
2215.5
1500.5
1903.5
1244.5
1326.5
1947.5
1285.5
1236.5
930.5
935.5
2094.5
1571.5
1471.5
1130.5
1356.5
1493.5
2210.5
604.5
1453.5
1207.5
1220.5
908.5
1145.5
972.5
1415.5
1524.5
920.5
1122.5
1259.5
1337.5
924.5
1284.5
1999.5
1532.5
1204.5
1420.5
1342.5
999.5
1384.5
1150.5
1432.5
2146.5
1864.5
2280.5
1436.5
958.5
1248.5
1265.5
1366.5
1311.5
902.5
774.5
1695.5
682.5
2307.5
1025.5
803.5
1687.5
1588.5
1125.5
1731.5
1651.5
1582.5
2021.5
887.5
2188.5
859.5
1190.5
985.5
972.5
812.5
1351.5
1117.5
1470.5
944.5
980.5
1276.5
2086.5
1150.5
944.5
1085.5
1292.5
1138.5
909.5
1089.5
1738.5
1364.5
1535.5
1257.5
1378.5
1649.5
834.5
1287.5
1095.5
1862.5
2022.5
2333.5
1335.5
1557.5
1339.5
2295.5
990.5
1848.5
1316.5
1553.5
1212.5
2084.5
1144.5
1459.5
1160.5
1066.5
1140.5
1283.5
1252.5
1348.5
1960.5
1701.5
1153.5
1218.5
2061.5
1748.5
1212.5
1542.5
1185.5
1670.5
1257.5
2125.5
1829.5
1107.5
1114.5
832.5
1855.5
925.5
1300.5
2257.5
1026.5
1073.5
1910.5
994.5
1992.5
917.5
1419.5
2289.5
887.5
1262.5
1017.5
903.5
927.5
1614.5
929.5
796.5
1456.5
1590.5
2200.5
794.5
1378.5
1297.5
1355.5
963.5
660.5
1364.5
2074.5
1157.5
566.5
1008.5
1491.5
1126.5
848.5
1574.5
2030.5
1966.5
573.5
2096.5
1779.5
1176.5
1408.5
2219.5
1992.5
1722.5
1453.5
1458.5
1055.5
1933.5
805.5
1319.5
1025.5
874.5
1289.5
907.5
1343.5
1103.5
1982.5
1707.5
1617.5
691.5
1042.5
1219.5
985.5
1299.5
989.5
1110.5
1872.5
1485.5
1897.5
1439.5
1756.5
2033.5
1321.5
848.5
1479.5
1154.5
1082.5
1612.5
1164.5
762.5
1711.5
888.5
1152.5
851.5
1111.5
1477.5
1100.5
1512.5
1708.5
2043.5
980.5
1851.5
865.5
1087.5
1248.5
1726.5
745.5
1395.5
2000.5
581.5
820.5
1842.5
1846.5
1053.5
823.5
856.5
2064.5
1576.5
2097.5
1880.5
1464.5
1220.5
1672.5
845.5
1544.5
1047.5
770.5
801.5
1192.5
920.5
1501.5
1253.5
978.5
2053.5
781.5
1119.5
1093.5
973.5
1446.5
1790.5
1397.5
826.5
971.5
938.5
835.5
2070.5
784.5
1256.5
1013.5
2202.5
1100.5
2088.5
1500.5
1349.5
942.5
912.5
1547.5
1581.5
667.5
1876.5
1949.5
2233.5
1316.5
1981.5
1837.5
2273.5
1122.5
1821.5
1660.5
2231.5
1174.5
1206.5
1653.5
810.5
1241.5
784.5
1295.5
1782.5
1444.5
1152.5
947.5
778.5
1541.5
1119.5
1105.5
972.5
824.5
1070.5
2137.5
796.5
1834.5
1959.5
1526.5
2181.5
945.5
1278.5
1413.5
1395.5
1024.5
1069.5
1563.5
1338.5
566.5
811.5
1738.5
827.5
949.5
947.5
954.5
784.5
1270.5
1583.5
1663.5
1300.5
1353.5
1184.5
2322.5
2292.5
1415.5
1257.5
1582.5
859.5
1110.5
1648.5
1575.5
1669.5
2064.5
1002.5
1470.5
1898.5
1194.5
1159.5
1140.5
1391.5
1850.5
2276.5
2341.5
1419.5
1832.5
2209.5
2053.5
2214.5
2134.5
2169.5
2317.5
1920.5
1590.5
1283.5
1646.5
2153.5
1425.5
1896.5
927.5
2174.5
1186.5
1119.5
2190.5
692.5
975.5
2048.5
1273.5
1725.5
1411.5
1493.5
1316.5
853.5
2313.5
958.5
674.5
1846.5
1630.5
938.5
1095.5
872.5
2154.5
1854.5
883.5
952.5
1353.5
2206.5
1652.5
674.5
758.5
1183.5
734.5
1261.5
1938.5
1799.5
1044.5
2219.5
1452.5
922.5
2149.5
1828.5
835.5
2285.5
2110.5
613.5
1615.5
1851.5
1655.5
893.5
1771.5
882.5
1687.5
874.5
852.5
1261.5
672.5
1204.5
1246.5
1496.5
1101.5
1180.5
1004.5
1132.5
1186.5
848.5
1796.5
2192.5
1239.5
1582.5
2336.5
819.5
1793.5
1983.5
1736.5
962.5
1555.5
1352.5
1884.5
824.5
2171.5
1054.5
1469.5
720.5
1863.5
1120.5
1343.5
1246.5
1985.5
1389.5
841.5
1208.5
1111.5
1215.5
1339.5
571.5
672.5
1049.5
1113.5
1314.5
1672.5
1713.5
836.5
2319.5
1859.5
775.5
855.5
1151.5
1089.5
886.5
1410.5
1959.5
927.5
1199.5
1006.5
920.5
1336.5
2063.5
922.5
1300.5
1773.5
707.5
818.5
1115.5
771.5
706.5
1788.5
1116.5
2283.5
1238.5
1837.5
1616.5
737.5
1528.5
1706.5
1111.5
1113.5
974.5
1671.5
1098.5
1655.5
1198.5
2140.5
1746.5
1332.5
1377.5
1604.5
1540.5
1228.5
767.5
1229.5
1172.5
988.5
1918.5
2238.5
591.5
777.5
1173.5
941.5
1868.5
693.5
1898.5
783.5
1049.5
1111.5
783.5
930.5
1192.5
780.5
1430.5
838.5
983.5
1900.5
1962.5
582.5
850.5
1306.5
1776.5
1082.5
953.5
871.5
851.5
1297.5
1652.5
1678.5
1502.5
1570.5
1255.5
1800.5
1168.5
1734.5
1212.5
2077.5
1330.5
1122.5
662.5
941.5
1585.5
1385.5
1097.5
632.5
1610.5
1248.5
1243.5
1185.5
625.5
972.5
842.5
1642.5
2236.5
954.5
1003.5
1346.5
1043.5
1659.5
1019.5
1007.5
858.5
1065.5
914.5
1092.5
1616.5
756.5
1824.5
2356.5
594.5
2348.5
1389.5
1197.5
1351.5
1671.5
678.5
2339.5
1681.5
1668.5
642.5
2337.5
964.5
1006.5
535.5
1047.5
670.5
972.5
1464.5
1066.5
1474.5
1596.5
1049.5
1236.5
1290.5
2335.5
1082.5
1645.5
1344.5
1093.5
923.5
1598.5
1046.5
767.5
1092.5
1222.5
2117.5
1175.5
1160.5
960.5
1370.5
1120.5
2081.5
982.5
1200.5
941.5
741.5
1686.5
777.5
1053.5
904.5
1866.5
1618.5
1223.5
1750.5
729.5
685.5
1480.5
1484.5
860.5
1665.5
1147.5
1669.5
1697.5
1598.5
821.5
667.5
1961.5
1164.5
1361.5
992.5
1830.5
1290.5
1136.5
1222.5
902.5
1372.5
968.5
1681.5
2339.5
794.5
2341.5
1011.5
1204.5
1835.5
1430.5
1294.5
1313.5
1599.5
2231.5
1261.5
559.5
1565.5
680.5
830.5
1728.5
1368.5
1225.5
1193.5
1255.5
1156.5
833.5
1525.5
1366.5
798.5
1190.5
792.5
845.5
711.5
1055.5
1066.5
959.5
2017.5
1942.5
2214.5
1186.5
1660.5
868.5
1017.5
790.5
1050.5
2315.5
1170.5
628.5
1438.5
1246.5
1615.5
1328.5
1510.5
703.5
865.5
2308.5
879.5
2125.5
995.5
818.5
1247.5
1528.5
1153.5
1264.5
1156.5
906.5
1995.5
1580.5
1246.5
1058.5
738.5
1242.5
1972.5
2172.5
1315.5
1185.5
1467.5
626.5
1360.5
1196.5
1354.5
765.5
872.5
905.5
1419.5
1126.5
980.5
1617.5
987.5
1726.5
788.5
919.5
1067.5
1082.5
859.5
2169.5
1072.5
958.5
1663.5
942.5
862.5
936.5
1285.5
918.5
1867.5
1102.5
1014.5
638.5
1635.5
1742.5
1973.5
763.5
2235.5
1296.5
1058.5
1122.5
1038.5
708.5
1982.5
683.5
1007.5
1077.5
1052.5
2324.5
891.5
1370.5
1692.5
750.5
1561.5
1434.5
2343.5
835.5
1857.5
835.5
1102.5
1139.5
2024.5
1705.5
1704.5
915.5
1019.5
1067.5
1096.5
1870.5
1018.5
1135.5
2289.5
1508.5
2256.5
1358.5
2363.5
1575.5
2344.5
1479.5
1022.5
1124.5
848.5
846.5
2077.5
1222.5
1441.5
635.5
1013.5
1011.5
612.5
855.5
1398.5
2302.5
2239.5
1184.5
2312.5
1107.5
1392.5
1518.5
1093.5
924.5
727.5
1396.5
554.5
2067.5
946.5
1905.5
1256.5
2015.5
848.5
1679.5
854.5
1511.5
1174.5
666.5
1837.5
2165.5
1148.5
950.5
1185.5
922.5
1635.5
2157.5
1008.5
1139.5
1248.5
1180.5
1791.5
812.5
1709.5
1448.5
1693.5
1276.5
877.5
1193.5
1506.5
722.5
2116.5
1545.5
1245.5
1419.5
1198.5
1146.5
2169.5
1290.5
1290.5
1103.5
1818.5
2207.5
1959.5
1108.5
1240.5
1948.5
1210.5
1161.5
1226.5
1941.5
1566.5
2020.5
1121.5
1580.5
1392.5
1327.5
1691.5
1864.5
1823.5
1454.5
1556.5
1862.5
2283.5
1459.5
1077.5
1609.5
1716.5
866.5
1158.5
1956.5
792.5
2082.5
1487.5
1939.5
783.5
1583.5
1124.5
1340.5
986.5
1124.5
954.5
1182.5
1473.5
765.5
952.5
1246.5
1399.5
1874.5
1114.5
845.5
646.5
888.5
930.5
825.5
578.5
598.5
1024.5
1672.5
803.5
1322.5
1877.5
1468.5
1556.5
2216.5
1000.5
1469.5
1855.5
1394.5
1392.5
1289.5
774.5
1282.5
1164.5
1324.5
976.5
892.5
1552.5
2194.5
1624.5
1670.5
1136.5
2191.5
2038.5
629.5
997.5
2108.5
1125.5
805.5
1104.5
2303.5
967.5
706.5
1208.5
1449.5
720.5
1190.5
1465.5
1590.5
1303.5
1157.5
1646.5
1057.5
1484.5
1311.5
1408.5
1020.5
740.5
2262.5
926.5
1007.5
2193.5
949.5
1623.5
1649.5
891.5
1447.5
2003.5
1345.5
603.5
1305.5
1887.5
2162.5
1160.5
1035.5
962.5
1704.5
1181.5
1300.5
985.5
1553.5
1521.5
1529.5
2128.5
1397.5
1382.5
1282.5
1792.5
971.5
1179.5
1177.5
1774.5
913.5
1211.5
492.5
1166.5
1372.5
885.5
1663.5
1894.5
1567.5
1046.5
1145.5
1228.5
1113.5
1439.5
982.5
1879.5
804.5
2344.5
1241.5
777.5
1601.5
1130.5
1028.5
1037.5
1342.5
1799.5
1138.5
1252.5
1079.5
1088.5
760.5
1165.5
1472.5
1629.5
1347.5
1646.5
1889.5
1147.5
1085.5
1732.5
1362.5
1761.5
1860.5
1137.5
580.5
1416.5
914.5
1125.5
769.5
1686.5
1240.5
1377.5
1272.5
1148.5
704.5
1705.5
1420.5
1430.5
1058.5
1254.5
981.5
747.5
2251.5
1604.5
1566.5
1109.5
752.5
828.5
1130.5
629.5
858.5
1422.5
1080.5
1397.5
908.5
1634.5
980.5
1176.5
936.5
2061.5
2285.5
2301.5
2009.5
1038.5
1427.5
1670.5
1380.5
2212.5
917.5
1573.5
1260.5
856.5
1625.5
1797.5
1476.5
948.5
1240.5
897.5
1116.5
2004.5
1136.5
1606.5
1367.5
1478.5
869.5
912.5
910.5
1877.5
1223.5
1278.5
1246.5
1252.5
2332.5
1236.5
1118.5
1371.5
1357.5
2305.5
1565.5
648.5
2075.5
1124.5
1718.5
1423.5
1314.5
2239.5
1816.5
1215.5
1300.5
2348.5
810.5
940.5
1361.5
895.5
1675.5
732.5
1830.5
1430.5
1736.5
1943.5
816.5
2232.5
1714.5
1460.5
745.5
1722.5
1115.5
1106.5
2078.5
716.5
670.5
1019.5
1446.5
1194.5
1214.5
946.5
1777.5
1205.5
1014.5
1123.5
1904.5
1281.5
1983.5
1933.5
1254.5
1892.5
1546.5
1414.5
1823.5
900.5
1376.5
2238.5
657.5
1139.5
1081.5
1260.5
1388.5
1671.5
1936.5
965.5
1916.5
1292.5
1073.5
1880.5
1361.5
1130.5
1370.5
1223.5
1535.5
788.5
811.5
1860.5
958.5
1532.5
2029.5
919.5
1278.5
960.5
1375.5
872.5
781.5
1469.5
1350.5
1194.5
1224.5
1139.5
1887.5
2352.5
1054.5
1634.5
1675.5
1535.5
676.5
871.5
1368.5
535.5
722.5
1228.5
2034.5
1062.5
1441.5
650.5
1180.5
1545.5
1271.5
2209.5
890.5
1330.5
695.5
2352.5
1653.5
1049.5
1193.5
771.5
1408.5
668.5
1838.5
1788.5
1240.5
1710.5
1985.5
1628.5
1811.5
1456.5
1203.5
1762.5
1481.5
1026.5
1606.5
2335.5
683.5
1106.5
1627.5
594.5
1625.5
1475.5
1580.5
1075.5
2162.5
1342.5
1619.5
2236.5
1603.5
1338.5
1184.5
2017.5
1352.5
766.5
1979.5
1190.5
1022.5
1224.5
830.5
1889.5
553.5
1242.5
1005.5
1003.5
2111.5
1601.5
1220.5
706.5
1490.5
2106.5
813.5
1988.5
861.5
1586.5
1708.5
1345.5
1507.5
723.5
1429.5
906.5
1505.5
1875.5
1076.5
2380.5
1108.5
2384.5
1049.5
2383.5
1887.5
826.5
797.5
960.5
1213.5
1670.5
993.5
562.5
958.5
1529.5
1247.5
607.5
2337.5
1466.5
2338.5
1442.5
2408.5
2041.5
2332.5
784.5
1044.5
798.5
1067.5
575.5
2127.5
1184.5
1322.5
1202.5
571.5
1255.5
2157.5
595.5
967.5
1547.5
1995.5
2221.5
1282.5
1100.5
1460.5
1029.5
1344.5
1435.5
1245.5
1355.5
1611.5
2382.5
1450.5
1136.5
2137.5
1322.5
1452.5
2211.5
1870.5
952.5
1846.5
842.5
2287.5
729.5
753.5
1978.5
1953.5
1691.5
812.5
1268.5
850.5
1996.5
1871.5
1263.5
696.5
1151.5
1221.5
1630.5
1022.5
1105.5
943.5
658.5
953.5
1148.5
820.5
1035.5
2155.5
1105.5
1482.5
1192.5
1437.5
699.5
1200.5
779.5
1374.5
1384.5
1150.5
2194.5
1379.5
2062.5
2358.5
1960.5
964.5
1474.5
2160.5
1557.5
723.5
1186.5
1769.5
531.5
1189.5
1394.5
1252.5
1962.5
1195.5
1736.5
1385.5
1284.5
2028.5
1386.5
1227.5
2067.5
1030.5
1541.5
943.5
912.5
1266.5
1038.5
2045.5
2288.5
1771.5
1495.5
1142.5
2114.5
1205.5
1529.5
1258.5
1482.5
2012.5
1853.5
1138.5
1414.5
1834.5
2119.5
853.5
955.5
1134.5
1185.5
1384.5
692.5
1755.5
1459.5
1070.5
958.5
895.5
990.5
1882.5
766.5
1426.5
1476.5
1124.5
1170.5
1478.5
2035.5
1511.5
554.5
2015.5
1028.5
993.5
1157.5
956.5
1679.5
876.5
985.5
869.5
965.5
1455.5
1673.5
1024.5
2403.5
954.5
1594.5
873.5
1646.5
1576.5
1300.5
1116.5
1205.5
1605.5
1660.5
673.5
1192.5
1082.5
673.5
1361.5
1864.5
2123.5
1113.5
1040.5
1789.5
1388.5
2322.5
2204.5
1722.5
1298.5
1226.5
1044.5
1346.5
2149.5
1144.5
1163.5
1007.5
1632.5
1309.5
1677.5
1861.5
1043.5
847.5
1711.5
1126.5
2035.5
710.5
2259.5
1092.5
1323.5
1843.5
1475.5
1132.5
1093.5
1713.5
1190.5
1253.5
1087.5
1021.5
2127.5
1257.5
1264.5
1061.5
1871.5
1261.5
1752.5
1104.5
1006.5
1497.5
841.5
819.5
1486.5
1096.5
1259.5
1339.5
1176.5
1336.5
1113.5
801.5
1070.5
1421.5
2186.5
1007.5
1065.5
1523.5
1727.5
1860.5
1128.5
1422.5
1106.5
1666.5
947.5
1237.5
849.5
1065.5
1772.5
1155.5
1000.5
1293.5
1356.5
1055.5
2057.5
1078.5
760.5
1696.5
2265.5
1153.5
2262.5
877.5
1968.5
1138.5
2105.5
1258.5
839.5
1575.5
863.5
1198.5
1285.5
847.5
1456.5
1495.5
1257.5
1339.5
805.5
1207.5
1148.5
1700.5
962.5
1682.5
1236.5
1585.5
2171.5
1420.5
810.5
1369.5
1969.5
1074.5
1300.5
921.5
1397.5
798.5
1089.5
1952.5
1053.5
1807.5
1536.5
1648.5
2261.5
1610.5
1310.5
1495.5
1712.5
1486.5
958.5
2013.5
2294.5
972.5
1558.5
1020.5
854.5
1572.5
1228.5
687.5
803.5
965.5
1610.5
1226.5
749.5
1915.5
1116.5
1540.5
1645.5
1442.5
2049.5
894.5
1051.5
936.5
1184.5
1134.5
1479.5
1624.5
1984.5
1095.5
1395.5
1310.5
1063.5
1325.5
1143.5
1194.5
1714.5
1339.5
842.5
1868.5
1228.5
1141.5
880.5
1648.5
1053.5
2291.5
1644.5
1647.5
1314.5
644.5
2350.5
1545.5
1203.5
1356.5
911.5
959.5
859.5
848.5
1822.5
2025.5
1772.5
702.5
1178.5
1636.5
1983.5
924.5
1079.5
1672.5
1294.5
1023.5
1335.5
1282.5
1666.5
881.5
1068.5
754.5
712.5
1750.5
843.5
775.5
1122.5
1334.5
756.5
1012.5
1315.5
1639.5
1808.5
1595.5
1210.5
1865.5
1714.5
583.5
1031.5
1130.5
968.5
837.5
1688.5
1963.5
2181.5
890.5
1112.5
1490.5
1309.5
1230.5
932.5
1713.5
1305.5
2112.5
1127.5
1497.5
2347.5
800.5
1790.5
762.5
1620.5
1603.5
1902.5
1549.5
824.5
1352.5
1861.5
815.5
1179.5
899.5
1981.5
1503.5
741.5
989.5
1864.5
684.5
1398.5
1248.5
1189.5
1324.5
1192.5
1137.5
1644.5
1157.5
1293.5
1926.5
2118.5
2310.5
1530.5
1543.5
1371.5
1683.5
1165.5
1686.5
1668.5
1389.5
1245.5
2386.5
1710.5
2005.5
1851.5
2087.5
999.5
793.5
983.5
1701.5
2015.5
1032.5
1153.5
1426.5
2218.5
1405.5
1215.5
1319.5
1008.5
1531.5
1108.5
1869.5
1502.5
1597.5
1728.5
1780.5
1026.5
585.5
1577.5
1079.5
1532.5
1020.5
1098.5
1855.5
2286.5
1160.5
2018.5
1249.5
956.5
1982.5
928.5
2292.5
1694.5
698.5
737.5
1155.5
1047.5
927.5
1149.5
2055.5
1360.5
1372.5
1113.5
827.5
1074.5
1282.5
1473.5
1100.5
2269.5
1521.5
2303.5
1287.5
1412.5
960.5
1678.5
820.5
947.5
1090.5
1344.5
1083.5
1943.5
1418.5
1128.5
2245.5
1352.5
1826.5
983.5
1467.5
1117.5
1445.5
871.5
1533.5
1402.5
1570.5
2365.5
1365.5
2324.5
1010.5
1723.5
768.5
1776.5
1217.5
2091.5
1450.5
2158.5
1134.5
932.5
1124.5
757.5
1125.5
982.5
899.5
2243.5
1836.5
1780.5
1734.5
1416.5
1750.5
1860.5
1712.5
936.5
1292.5
1957.5
1556.5
1236.5
1723.5
1118.5
886.5
862.5
1078.5
1612.5
1258.5
1071.5
1176.5
971.5
1322.5
1941.5
2134.5
951.5
2195.5
893.5
1395.5
1071.5
1237.5
1039.5
1272.5
1814.5
1098.5
1522.5
1486.5
2337.5
1459.5
1129.5
1334.5
1815.5
1359.5
1139.5
1404.5
2300.5
927.5
1349.5
1324.5
1458.5
1145.5
1268.5
1207.5
1006.5
1137.5
1306.5
2318.5
1379.5
1233.5
981.5
1215.5
1074.5
1385.5
1762.5
1367.5
1528.5
2118.5
1421.5
1004.5
961.5
962.5
1113.5
725.5
1156.5
1760.5
1483.5
1055.5
1301.5
1225.5
893.5
1667.5
1422.5
1034.5
860.5
978.5
944.5
950.5
1923.5
1706.5
1060.5
1422.5
2351.5
1788.5
1631.5
1566.5
1717.5
1234.5
2350.5
1542.5
1186.5
2107.5
1333.5
1242.5
1682.5
697.5
1046.5
2118.5
1197.5
834.5
1571.5
1058.5
1480.5
654.5
954.5
1185.5
1610.5
698.5
1588.5
1792.5
959.5
719.5
835.5
1386.5
1947.5
753.5
1808.5
1030.5
1493.5
1711.5
1885.5
1410.5
556.5
614.5
568.5
985.5
1250.5
1268.5
1485.5
2192.5
1490.5
1056.5
1281.5
2201.5
1694.5
847.5
1316.5
1432.5
1540.5
1311.5
803.5
1139.5
823.5
747.5
2170.5
1605.5
1193.5
1246.5
1884.5
1286.5
1012.5
1151.5
1600.5
1022.5
1653.5
1083.5
1458.5
1725.5
1908.5
1172.5
1107.5
1260.5
1682.5
1261.5
666.5
1576.5
2014.5
2150.5
1144.5
1280.5
1354.5
1812.5
1463.5
1781.5
1170.5
1021.5
1830.5
1258.5
2256.5
1496.5
1999.5
1528.5
1162.5
1100.5
1539.5
1024.5
1866.5
1701.5
2154.5
1014.5
1305.5
833.5
1773.5
2152.5
1249.5
2410.5
2231.5
1748.5
1116.5
1214.5
2195.5
1888.5
1423.5
899.5
1336.5
2176.5
999.5
2328.5
2395.5
1673.5
1193.5
766.5
1024.5
2160.5
779.5
1216.5
2183.5
1339.5
2346.5
2253.5
1807.5
2363.5
2258.5
1013.5
1281.5
1277.5
2189.5
1073.5
2007.5
1581.5
1685.5
2130.5
1133.5
1083.5
1451.5
1273.5
1330.5
946.5
1386.5
1326.5
1201.5
1642.5
1497.5
1351.5
1486.5
1034.5
2054.5
1924.5
2003.5
2249.5
1488.5
2300.5
1519.5
1472.5
1159.5
1611.5
1840.5
1643.5
1345.5
1816.5
1651.5
1197.5
2035.5
1956.5
1071.5
1224.5
1672.5
2069.5
2212.5
1114.5
1113.5
1529.5
995.5
1529.5
1134.5
1036.5
1716.5
994.5
1793.5
1448.5
1314.5
1304.5
1550.5
2330.5
1343.5
1059.5
2198.5
1885.5
1194.5
1177.5
2348.5
1785.5
1922.5
1400.5
1143.5
741.5
1126.5
2301.5
1054.5
1320.5
2055.5
1467.5
1404.5
1876.5
1038.5
1219.5
1644.5
1770.5
1682.5
2342.5
1577.5
1457.5
1331.5
1280.5
1334.5
2321.5
1514.5
1153.5
2335.5
1085.5
1007.5
1213.5
1768.5
1317.5
1635.5
1228.5
1394.5
2267.5
979.5
1072.5
1668.5
1116.5
1576.5
1211.5
833.5
1156.5
1074.5
2319.5
2356.5
1948.5
1969.5
1390.5
1826.5
1168.5
1447.5
1074.5
1555.5
1806.5
1460.5
1275.5
1154.5
1697.5
1189.5
2002.5
1278.5
2270.5
1339.5
1775.5
1073.5
1405.5
1984.5
2199.5
1556.5
1278.5
950.5
1153.5
1069.5
1987.5
866.5
1534.5
1224.5
1017.5
1068.5
1829.5
2112.5
1393.5
1667.5
1580.5
1683.5
1026.5
1293.5
1027.5
1113.5
1311.5
1561.5
2129.5
1240.5
1458.5
1589.5
1030.5
1553.5
1317.5
1738.5
1312.5
1036.5
962.5
1095.5
2041.5
2149.5
2225.5
1649.5
993.5
1728.5
800.5
1708.5
1322.5
2048.5
1968.5
963.5
766.5
1370.5
985.5
2359.5
1449.5
1383.5
1432.5
2320.5
1122.5
1391.5
1704.5
1597.5
1579.5
1375.5
1121.5
1296.5
1630.5
1689.5
1499.5
1390.5
743.5
1288.5
1741.5
853.5
1361.5
1749.5
1191.5
1366.5
2208.5
1667.5
1125.5
1853.5
1831.5
1215.5
1239.5
1049.5
1653.5
1041.5
1488.5
1022.5
983.5
1137.5
1985.5
920.5
1055.5
827.5
1227.5
1342.5
1571.5
1318.5
1576.5
2234.5
1726.5
861.5
1411.5
1380.5
1352.5
1321.5
1620.5
1275.5
1172.5
1792.5
857.5
2204.5
981.5
1600.5
951.5
616.5
1234.5
1869.5
2223.5
2164.5
956.5
1857.5
1604.5
2078.5
1974.5
1643.5
1565.5
2338.5
1319.5
1360.5
1735.5
619.5
1226.5
1997.5
1327.5
1064.5
1178.5
2311.5
1692.5
1014.5
2271.5
1156.5
1487.5
1078.5
1759.5
1081.5
697.5
1633.5
1749.5
1501.5
794.5
1651.5
1130.5
823.5
817.5
770.5
1841.5
1216.5
1761.5
843.5
796.5
999.5
1201.5
1404.5
1151.5
1683.5
1370.5
927.5
1593.5
1485.5
1144.5
1474.5
2313.5
1215.5
1978.5
1732.5
1498.5
1815.5
1170.5
1346.5
862.5
1305.5
856.5
2272.5
903.5
835.5
1807.5
689.5
1072.5
1213.5
1578.5
1209.5
1904.5
1324.5
1997.5
1275.5
2293.5
1139.5
1546.5
969.5
1287.5
1457.5
844.5
1470.5
1283.5
1568.5
1248.5
808.5
1344.5
978.5
2304.5
1073.5
2161.5
947.5
962.5
804.5
1671.5
1099.5
949.5
995.5
1158.5
1485.5
1575.5
1093.5
1047.5
1756.5
695.5
1228.5
913.5
2139.5
1592.5
2153.5
664.5
2358.5
1590.5
1638.5
2258.5
2040.5
1830.5
1709.5
866.5
1069.5
1624.5
1173.5
613.5
1298.5
723.5
2378.5
1141.5
2214.5
1398.5
1087.5
1707.5
809.5
884.5
1439.5
664.5
1714.5
1575.5
971.5
1417.5
1996.5
2172.5
765.5
1395.5
1496.5
1126.5
735.5
748.5
1697.5
1007.5
1528.5
1612.5
1762.5
1107.5
901.5
1204.5
1631.5
985.5
1428.5
1769.5
1398.5
1629.5
1485.5
737.5
783.5
1935.5
1712.5
1090.5
651.5
1066.5
2141.5
2299.5
1289.5
1564.5
1387.5
1108.5
1126.5
1133.5
2243.5
1698.5
2349.5
2347.5
1080.5
1201.5
1898.5
2267.5
1039.5
1515.5
1237.5
882.5
1521.5
719.5
997.5
2121.5
1904.5
1160.5
1654.5
1375.5
983.5
835.5
963.5
1524.5
754.5
1252.5
1013.5
2047.5
1323.5
1950.5
1942.5
1105.5
1989.5
1800.5
800.5
976.5
1051.5
1586.5
1251.5
1352.5
811.5
1357.5
1244.5
955.5
1969.5
727.5
1103.5
1689.5
894.5
1027.5
931.5
678.5
1292.5
885.5
2402.5
2324.5
1630.5
1752.5
1943.5
1213.5
1047.5
1197.5
1204.5
982.5
1161.5
1939.5
1072.5
968.5
1259.5
1148.5
1682.5
1548.5
1126.5
1531.5
1229.5
2271.5
1845.5
679.5
1383.5
1851.5
1408.5
1114.5
1679.5
654.5
1228.5
1090.5
1607.5
1693.5
1089.5
1398.5
1985.5
705.5
1014.5
1838.5
2223.5
868.5
1663.5
760.5
2024.5
1391.5
1665.5
1087.5
1233.5
1017.5
1227.5
1168.5
2117.5
933.5
892.5
1444.5
1348.5
2127.5
1448.5
1326.5
1497.5
1959.5
816.5
1950.5
1399.5
1151.5
663.5
2084.5
797.5
437.5
413.5
1431.5
1638.5
443.5
2147.5
2.5
0.5
-2.5
2.5
-9.5
-18.5
-14.5
-18.5
-8.5
2.5
2.5
-10.5
-5.5
32.5
